Angle of Attack [deg]	Drag Coefficient Cd [-]	Angle of Attack [deg]	Drag Coefficient Cd [-]
-1.8000000e+02	6.0000150e-03	-4.0000000e+00	3.1800002e-02
-1.7900000e+02	6.5219733e-03	-3.5000000e+00	2.8689999e-02
-1.7800000e+02	8.0861468e-03	-3.0000000e+00	2.6040001e-02
-1.7700000e+02	1.0689035e-02	-2.5000000e+00	2.4890000e-02
-1.7600000e+02	1.4325877e-02	-2.0000000e+00	2.3140000e-02
-1.7500000e+02	1.8990662e-02	-1.5000000e+00	2.0870000e-02
-1.7400000e+02	2.4676135e-02	-1.0000000e+00	1.9450000e-02
-1.7300000e+02	3.1373817e-02	-5.0000000e-01	1.9050000e-02
-1.7200000e+02	3.9074011e-02	0.0000000e+00	1.8910000e-02
-1.7100000e+02	4.7765817e-02	5.0000000e-01	1.8710000e-02
-1.7000000e+02	5.7437155e-02	1.0000000e+00	1.8500000e-02
-1.6900000e+02	6.8074763e-02	1.5000000e+00	1.8209999e-02
-1.6800000e+02	7.9664253e-02	2.0000000e+00	1.7920000e-02
-1.6700000e+02	9.2190079e-02	2.5000000e+00	1.7640000e-02
-1.6600000e+02	1.0563561e-01	3.0000000e+00	1.7250000e-02
-1.6500000e+02	1.1998313e-01	3.5000000e+00	1.7309999e-02
-1.6400000e+02	1.3521384e-01	4.0000000e+00	1.7370000e-02
-1.6300000e+02	1.5130793e-01	4.5000000e+00	1.7550001e-02
-1.6200000e+02	1.6824456e-01	5.0000000e+00	1.8010000e-02
-1.6100000e+02	1.8600191e-01	5.5000000e+00	1.8619999e-02
-1.6000000e+02	2.0455723e-01	6.0000000e+00	1.9440001e-02
-1.5900000e+02	2.2388680e-01	6.5000000e+00	2.0150000e-02
-1.5800000e+02	2.4396606e-01	7.0000000e+00	2.0959999e-02
-1.5700000e+02	2.6476955e-01	7.5000000e+00	2.1940000e-02
-1.5600000e+02	2.8627098e-01	8.0000000e+00	2.2960000e-02
-1.5500000e+02	3.0844325e-01	8.5000000e+00	2.4040001e-02
-1.5400000e+02	3.3125857e-01	9.0000000e+00	2.5300000e-02
-1.5300000e+02	3.5468832e-01	9.5000000e+00	2.6480000e-02
-1.5200000e+02	3.7870327e-01	1.0000000e+01	2.7729999e-02
-1.5100000e+02	4.0327346e-01	1.0500000e+01	2.9279999e-02
-1.5000000e+02	4.2836839e-01	1.1000000e+01	3.1360000e-02
-1.4900000e+02	4.5395693e-01	1.1500000e+01	3.3840001e-02
-1.4800000e+02	4.8000741e-01	1.2000000e+01	3.6729999e-02
-1.4700000e+02	5.0648761e-01	1.2500000e+01	4.0199999e-02
-1.4600000e+02	5.3336501e-01	1.3000000e+01	4.4790000e-02
-1.4500000e+02	5.6060642e-01	1.3500000e+01	5.1290002e-02
-1.4400000e+02	5.8817846e-01	1.4000000e+01	5.9340000e-02
-1.4300000e+02	6.1604726e-01	1.4500000e+01	6.6900000e-02
-1.4200000e+02	6.4417881e-01	1.5000000e+01	7.4010000e-02
-1.4100000e+02	6.7253870e-01	1.5500000e+01	8.0440000e-02
-1.4000000e+02	7.0109236e-01	1.6000000e+01	8.9060001e-02
-1.3900000e+02	7.2980499e-01	1.6500000e+01	9.8169997e-02
-1.3800000e+02	7.5864172e-01	1.7000000e+01	1.0678000e-01
-1.3700000e+02	7.8756744e-01	1.7500000e+01	1.1724000e-01
-1.3600000e+02	8.1654716e-01	1.8500000e+01	2.0923001e-01
-1.3500000e+02	8.4554571e-01	1.9500000e+01	2.4357000e-01
-1.3400000e+02	8.7452811e-01	END	END
-1.3300000e+02	9.0345931e-01	END	END
-1.3200000e+02	9.3230438e-01	END	END
-1.3100000e+02	9.6102858e-01	END	END
-1.3000000e+02	9.8959738e-01	END	END
-1.2900000e+02	1.0179764e+00	END	END
-1.2800000e+02	1.0461316e+00	END	END
-1.2700000e+02	1.0740291e+00	END	END
-1.2600000e+02	1.1016356e+00	END	END
-1.2500000e+02	1.1289179e+00	END	END
-1.2400000e+02	1.1558435e+00	END	END
-1.2300000e+02	1.1823802e+00	END	END
-1.2200000e+02	1.2084963e+00	END	END
-1.2100000e+02	1.2341608e+00	END	END
-1.2000000e+02	1.2593428e+00	END	END
-1.1900000e+02	1.2840124e+00	END	END
-1.1800000e+02	1.3081405e+00	END	END
-1.1700000e+02	1.3316982e+00	END	END
-1.1600000e+02	1.3546575e+00	END	END
-1.1500000e+02	1.3769913e+00	END	END
-1.1400000e+02	1.3986728e+00	END	END
-1.1300000e+02	1.4196767e+00	END	END
-1.1200000e+02	1.4399778e+00	END	END
-1.1100000e+02	1.4595522e+00	END	END
-1.1000000e+02	1.4783766e+00	END	END
-1.0900000e+02	1.4964288e+00	END	END
-1.0800000e+02	1.5136876e+00	END	END
-1.0700000e+02	1.5301324e+00	END	END
-1.0600000e+02	1.5457439e+00	END	END
-1.0500000e+02	1.5605037e+00	END	END
-1.0400000e+02	1.5743942e+00	END	END
-1.0300000e+02	1.5873991e+00	END	END
-1.0200000e+02	1.5995032e+00	END	END
-1.0100000e+02	1.6106920e+00	END	END
-1.0000000e+02	1.6209525e+00	END	END
-9.9000000e+01	1.6302725e+00	END	END
-9.8000000e+01	1.6386410e+00	END	END
-9.7000000e+01	1.6460483e+00	END	END
-9.6000000e+01	1.6524855e+00	END	END
-9.5000000e+01	1.6579452e+00	END	END
-9.4000000e+01	1.6624207e+00	END	END
-9.3000000e+01	1.6659070e+00	END	END
-9.2000000e+01	1.6683998e+00	END	END
-9.1000000e+01	1.6698964e+00	END	END
-9.0000000e+01	1.6703948e+00	END	END
-8.9000000e+01	1.6698946e+00	END	END
-8.8000000e+01	1.6683962e+00	END	END
-8.7000000e+01	1.6659014e+00	END	END
-8.6000000e+01	1.6624134e+00	END	END
-8.5000000e+01	1.6579359e+00	END	END
-8.4000000e+01	1.6524743e+00	END	END
-8.3000000e+01	1.6460352e+00	END	END
-8.2000000e+01	1.6386260e+00	END	END
-8.1000000e+01	1.6302555e+00	END	END
-8.0000000e+01	1.6209334e+00	END	END
-7.9000000e+01	1.6106708e+00	END	END
-7.8000000e+01	1.5994799e+00	END	END
-7.7000000e+01	1.5873736e+00	END	END
-7.6000000e+01	1.5743665e+00	END	END
-7.5000000e+01	1.5604736e+00	END	END
-7.4000000e+01	1.5457114e+00	END	END
-7.3000000e+01	1.5300975e+00	END	END
-7.2000000e+01	1.5136501e+00	END	END
-7.1000000e+01	1.4963886e+00	END	END
-7.0000000e+01	1.4783335e+00	END	END
-6.9000000e+01	1.4595062e+00	END	END
-6.8000000e+01	1.4399287e+00	END	END
-6.7000000e+01	1.4196244e+00	END	END
-6.6000000e+01	1.3986173e+00	END	END
-6.5000000e+01	1.3769321e+00	END	END
-6.4000000e+01	1.3545947e+00	END	END
-6.3000000e+01	1.3316314e+00	END	END
-6.2000000e+01	1.3080697e+00	END	END
-6.1000000e+01	1.2839373e+00	END	END
-6.0000000e+01	1.2592630e+00	END	END
-5.9000000e+01	1.2340761e+00	END	END
-5.8000000e+01	1.2084066e+00	END	END
-5.7000000e+01	1.1822850e+00	END	END
-5.6000000e+01	1.1557424e+00	END	END
-5.5000000e+01	1.1288106e+00	END	END
-5.4000000e+01	1.1015216e+00	END	END
-5.3000000e+01	1.0739080e+00	END	END
-5.2000000e+01	1.0460029e+00	END	END
-5.1000000e+01	1.0178396e+00	END	END
-5.0000000e+01	9.8945171e-01	END	END
-4.9000000e+01	9.6087343e-01	END	END
-4.8000000e+01	9.3213898e-01	END	END
-4.7000000e+01	9.0328288e-01	END	END
-4.6000000e+01	8.7433970e-01	END	END
-4.5000000e+01	8.4534431e-01	END	END
-4.4000000e+01	8.1633151e-01	END	END
-4.3000000e+01	7.8733635e-01	END	END
-4.2000000e+01	7.5839365e-01	END	END
-4.1000000e+01	7.2953838e-01	END	END
-4.0000000e+01	7.0080531e-01	END	END
-3.9000000e+01	6.7222911e-01	END	END
-3.8000000e+01	6.4384431e-01	END	END
-3.7000000e+01	6.1568499e-01	END	END
-3.6000000e+01	5.8778530e-01	END	END
-3.5000000e+01	5.6017870e-01	END	END
-3.4000000e+01	5.3289849e-01	END	END
-3.3000000e+01	5.0597739e-01	END	END
-3.2000000e+01	4.7944754e-01	END	END
-3.1000000e+01	4.5334056e-01	END	END
-3.0000000e+01	4.2768735e-01	END	END
-2.9000000e+01	4.0251788e-01	END	END
-2.8000000e+01	3.7786129e-01	END	END
-2.7000000e+01	3.5374549e-01	END	END
-2.6000000e+01	3.3019710e-01	END	END
-2.5000000e+01	3.0724108e-01	END	END
-2.4000000e+01	2.8490037e-01	END	END
-2.3000000e+01	2.6319534e-01	END	END
-2.2000000e+01	2.4214289e-01	END	END
-2.1000000e+01	2.2175545e-01	END	END
-2.0000000e+01	2.0203914e-01	END	END
-1.9000000e+01	1.8299113e-01	END	END
-1.8000000e+01	1.6459554e-01	END	END
-1.7000000e+01	1.4681719e-01	END	END
-1.6000000e+01	1.2959188e-01	END	END
-1.5000000e+01	1.1281292e-01	END	END
-1.4000000e+01	9.6315928e-02	END	END
-1.3000000e+01	7.9879008e-02	END	END
-1.2000000e+01	6.3302919e-02	END	END
-1.1000000e+01	4.6745688e-02	END	END
-1.0000000e+01	3.1474508e-02	END	END
-9.0000000e+00	2.0152707e-02	END	END
-8.0000000e+00	1.4489056e-02	END	END
-7.0000000e+00	1.2843598e-02	END	END
-6.0000000e+00	1.2572894e-02	END	END
-5.0000000e+00	1.2475898e-02	END	END
-4.0000000e+00	3.1800002e-02	END	END
-3.5000000e+00	2.8689999e-02	END	END
-3.0000000e+00	2.6040001e-02	END	END
-2.5000000e+00	2.4890000e-02	END	END
-2.0000000e+00	2.3140000e-02	END	END
-1.5000000e+00	2.0870000e-02	END	END
-1.0000000e+00	1.9450000e-02	END	END
-5.0000000e-01	1.9050000e-02	END	END
0.0000000e+00	1.8910000e-02	END	END
5.0000000e-01	1.8710000e-02	END	END
1.0000000e+00	1.8500000e-02	END	END
1.5000000e+00	1.8209999e-02	END	END
2.0000000e+00	1.7920000e-02	END	END
2.5000000e+00	1.7640000e-02	END	END
3.0000000e+00	1.7250000e-02	END	END
3.5000000e+00	1.7309999e-02	END	END
4.0000000e+00	1.7370000e-02	END	END
4.5000000e+00	1.7550001e-02	END	END
5.0000000e+00	1.8010000e-02	END	END
5.5000000e+00	1.8619999e-02	END	END
6.0000000e+00	1.9440001e-02	END	END
6.5000000e+00	2.0150000e-02	END	END
7.0000000e+00	2.0959999e-02	END	END
7.5000000e+00	2.1940000e-02	END	END
8.0000000e+00	2.2960000e-02	END	END
8.5000000e+00	2.4040001e-02	END	END
9.0000000e+00	2.5300000e-02	END	END
9.5000000e+00	2.6480000e-02	END	END
1.0000000e+01	2.7729999e-02	END	END
1.0500000e+01	2.9279999e-02	END	END
1.1000000e+01	3.1360000e-02	END	END
1.1500000e+01	3.3840001e-02	END	END
1.2000000e+01	3.6729999e-02	END	END
1.2500000e+01	4.0199999e-02	END	END
1.3000000e+01	4.4790000e-02	END	END
1.3500000e+01	5.1290002e-02	END	END
1.4000000e+01	5.9340000e-02	END	END
1.4500000e+01	6.6900000e-02	END	END
1.5000000e+01	7.4010000e-02	END	END
1.5500000e+01	8.0440000e-02	END	END
1.6000000e+01	8.9060001e-02	END	END
1.6500000e+01	9.8169997e-02	END	END
1.7000000e+01	1.0678000e-01	END	END
1.7500000e+01	1.1724000e-01	END	END
1.8500000e+01	2.0923001e-01	END	END
1.9500000e+01	2.4357000e-01	END	END
2.0000000e+01	1.6494022e-01	END	END
2.1000000e+01	1.8494245e-01	END	END
2.2000000e+01	2.0594698e-01	END	END
2.3000000e+01	2.2789691e-01	END	END
2.4000000e+01	2.5073773e-01	END	END
2.5000000e+01	2.7441734e-01	END	END
2.6000000e+01	2.9888612e-01	END	END
2.7000000e+01	3.2409653e-01	END	END
2.8000000e+01	3.5000300e-01	END	END
2.9000000e+01	3.7656167e-01	END	END
3.0000000e+01	4.0372998e-01	END	END
3.1000000e+01	4.3146664e-01	END	END
3.2000000e+01	4.5973128e-01	END	END
3.3000000e+01	4.8848420e-01	END	END
3.4000000e+01	5.1768637e-01	END	END
3.5000000e+01	5.4729915e-01	END	END
3.6000000e+01	5.7728422e-01	END	END
3.7000000e+01	6.0760343e-01	END	END
3.8000000e+01	6.3821888e-01	END	END
3.9000000e+01	6.6909266e-01	END	END
4.0000000e+01	7.0018697e-01	END	END
4.1000000e+01	7.3146397e-01	END	END
4.2000000e+01	7.6288587e-01	END	END
4.3000000e+01	7.9441488e-01	END	END
4.4000000e+01	8.2601321e-01	END	END
4.5000000e+01	8.5764295e-01	END	END
4.6000000e+01	8.8926643e-01	END	END
4.7000000e+01	9.2084593e-01	END	END
4.8000000e+01	9.5234370e-01	END	END
4.9000000e+01	9.8372227e-01	END	END
5.0000000e+01	1.0149442e+00	END	END
5.1000000e+01	1.0459723e+00	END	END
5.2000000e+01	1.0767696e+00	END	END
5.3000000e+01	1.1072991e+00	END	END
5.4000000e+01	1.1375245e+00	END	END
5.5000000e+01	1.1674095e+00	END	END
5.6000000e+01	1.1969184e+00	END	END
5.7000000e+01	1.2260158e+00	END	END
5.8000000e+01	1.2546668e+00	END	END
5.9000000e+01	1.2828370e+00	END	END
6.0000000e+01	1.3104925e+00	END	END
6.1000000e+01	1.3376001e+00	END	END
6.2000000e+01	1.3641269e+00	END	END
6.3000000e+01	1.3900412e+00	END	END
6.4000000e+01	1.4153116e+00	END	END
6.5000000e+01	1.4399076e+00	END	END
6.6000000e+01	1.4637994e+00	END	END
6.7000000e+01	1.4869581e+00	END	END
6.8000000e+01	1.5093560e+00	END	END
6.9000000e+01	1.5309656e+00	END	END
7.0000000e+01	1.5517609e+00	END	END
7.1000000e+01	1.5717168e+00	END	END
7.2000000e+01	1.5908089e+00	END	END
7.3000000e+01	1.6090142e+00	END	END
7.4000000e+01	1.6263106e+00	END	END
7.5000000e+01	1.6426772e+00	END	END
7.6000000e+01	1.6580943e+00	END	END
7.7000000e+01	1.6725429e+00	END	END
7.8000000e+01	1.6860059e+00	END	END
7.9000000e+01	1.6984669e+00	END	END
8.0000000e+01	1.7099109e+00	END	END
8.1000000e+01	1.7203240e+00	END	END
8.2000000e+01	1.7296938e+00	END	END
8.3000000e+01	1.7380091e+00	END	END
8.4000000e+01	1.7452600e+00	END	END
8.5000000e+01	1.7514379e+00	END	END
8.6000000e+01	1.7565355e+00	END	END
8.7000000e+01	1.7605469e+00	END	END
8.8000000e+01	1.7634677e+00	END	END
8.9000000e+01	1.7652943e+00	END	END
9.0000000e+01	1.7660251e+00	END	END
9.1000000e+01	1.7656596e+00	END	END
9.2000000e+01	1.7641987e+00	END	END
9.3000000e+01	1.7616445e+00	END	END
9.4000000e+01	1.7580006e+00	END	END
9.5000000e+01	1.7532721e+00	END	END
9.6000000e+01	1.7474651e+00	END	END
9.7000000e+01	1.7405875e+00	END	END
9.8000000e+01	1.7326480e+00	END	END
9.9000000e+01	1.7236571e+00	END	END
1.0000000e+02	1.7136263e+00	END	END
1.0100000e+02	1.7025685e+00	END	END
1.0200000e+02	1.6904980e+00	END	END
1.0300000e+02	1.6774300e+00	END	END
1.0400000e+02	1.6633813e+00	END	END
1.0500000e+02	1.6483699e+00	END	END
1.0600000e+02	1.6324147e+00	END	END
1.0700000e+02	1.6155360e+00	END	END
1.0800000e+02	1.5977553e+00	END	END
1.0900000e+02	1.5790949e+00	END	END
1.1000000e+02	1.5595785e+00	END	END
1.1100000e+02	1.5392308e+00	END	END
1.1200000e+02	1.5180774e+00	END	END
1.1300000e+02	1.4961449e+00	END	END
1.1400000e+02	1.4734610e+00	END	END
1.1500000e+02	1.4500543e+00	END	END
1.1600000e+02	1.4259540e+00	END	END
1.1700000e+02	1.4011905e+00	END	END
1.1800000e+02	1.3757949e+00	END	END
1.1900000e+02	1.3497988e+00	END	END
1.2000000e+02	1.3232349e+00	END	END
1.2100000e+02	1.2961365e+00	END	END
1.2200000e+02	1.2685373e+00	END	END
1.2300000e+02	1.2404717e+00	END	END
1.2400000e+02	1.2119750e+00	END	END
1.2500000e+02	1.1830823e+00	END	END
1.2600000e+02	1.1538299e+00	END	END
1.2700000e+02	1.1242541e+00	END	END
1.2800000e+02	1.0943916e+00	END	END
1.2900000e+02	1.0642794e+00	END	END
1.3000000e+02	1.0339549e+00	END	END
1.3100000e+02	1.0034556e+00	END	END
1.3200000e+02	9.7281933e-01	END	END
1.3300000e+02	9.4208378e-01	END	END
1.3400000e+02	9.1128707e-01	END	END
1.3500000e+02	8.8046700e-01	END	END
1.3600000e+02	8.4966165e-01	END	END
1.3700000e+02	8.1890881e-01	END	END
1.3800000e+02	7.8824627e-01	END	END
1.3900000e+02	7.5771171e-01	END	END
1.4000000e+02	7.2734237e-01	END	END
1.4100000e+02	6.9717556e-01	END	END
1.4200000e+02	6.6724801e-01	END	END
1.4300000e+02	6.3759625e-01	END	END
1.4400000e+02	6.0825646e-01	END	END
1.4500000e+02	5.7926416e-01	END	END
1.4600000e+02	5.5065459e-01	END	END
1.4700000e+02	5.2246249e-01	END	END
1.4800000e+02	4.9472183e-01	END	END
1.4900000e+02	4.6746618e-01	END	END
1.5000000e+02	4.4072831e-01	END	END
1.5100000e+02	4.1454038e-01	END	END
1.5200000e+02	3.8893378e-01	END	END
1.5300000e+02	3.6393920e-01	END	END
1.5400000e+02	3.3958647e-01	END	END
1.5500000e+02	3.1590453e-01	END	END
1.5600000e+02	2.9292157e-01	END	END
1.5700000e+02	2.7066475e-01	END	END
1.5800000e+02	2.4916039e-01	END	END
1.5900000e+02	2.2843376e-01	END	END
1.6000000e+02	2.0850918e-01	END	END
1.6100000e+02	1.8940991e-01	END	END
1.6200000e+02	1.7115818e-01	END	END
1.6300000e+02	1.5377511e-01	END	END
1.6400000e+02	1.3728075e-01	END	END
1.6500000e+02	1.2169399e-01	END	END
1.6600000e+02	1.0703259e-01	END	END
1.6700000e+02	9.3313128e-02	END	END
1.6800000e+02	8.0551006e-02	END	END
1.6900000e+02	6.8760425e-02	END	END
1.7000000e+02	5.7954364e-02	END	END
1.7100000e+02	4.8144560e-02	END	END
1.7200000e+02	3.9341528e-02	END	END
1.7300000e+02	3.1554520e-02	END	END
1.7400000e+02	2.4791520e-02	END	END
1.7500000e+02	1.9059254e-02	END	END
1.7600000e+02	1.4363169e-02	END	END
1.7700000e+02	1.0707435e-02	END	END
1.7800000e+02	8.0949422e-03	END	END
1.7900000e+02	6.5273000e-03	END	END
1.8000000e+02	6.0048383e-03	END	END
