Angle of Attack [deg]	Lift Coefficient Cl [-]	Angle of Attack [deg]	Lift Coefficient Cl [-]
-1.8000000e+02	2.7392288e-03	-4.0000000e+00	-4.0650001e-01
-1.7900000e+02	8.8344134e-02	-3.5000000e+00	-3.6610001e-01
-1.7800000e+02	1.7391421e-01	-3.0000000e+00	-3.2020000e-01
-1.7700000e+02	2.5857982e-01	-2.5000000e+00	-2.7010000e-01
-1.7600000e+02	3.3840716e-01	-2.0000000e+00	-2.1690001e-01
-1.7500000e+02	4.0517479e-01	-1.5000000e+00	-1.7030001e-01
-1.7400000e+02	4.4956261e-01	-1.0000000e+00	-8.8500001e-02
-1.7300000e+02	4.6867120e-01	-5.0000000e-01	-4.5800000e-02
-1.7200000e+02	4.6953586e-01	0.0000000e+00	-7.6000001e-03
-1.7100000e+02	4.6342286e-01	5.0000000e-01	2.9200001e-02
-1.7000000e+02	4.5869276e-01	1.0000000e+00	6.4700000e-02
-1.6900000e+02	4.5896837e-01	1.5000000e+00	9.8700002e-02
-1.6800000e+02	4.6474838e-01	2.0000000e+00	1.3120000e-01
-1.6700000e+02	4.7521695e-01	2.5000000e+00	1.6180000e-01
-1.6600000e+02	4.8925352e-01	3.0000000e+00	1.9050001e-01
-1.6500000e+02	5.0583237e-01	3.5000000e+00	2.1750000e-01
-1.6400000e+02	5.2412689e-01	4.0000000e+00	2.4310000e-01
-1.6300000e+02	5.4350334e-01	4.5000000e+00	2.6809999e-01
-1.6200000e+02	5.6348407e-01	5.0000000e+00	2.9260001e-01
-1.6100000e+02	5.8370936e-01	5.5000000e+00	3.1690001e-01
-1.6000000e+02	6.0390645e-01	6.0000000e+00	3.4110001e-01
-1.5900000e+02	6.2386578e-01	6.5000000e+00	3.6480001e-01
-1.5800000e+02	6.4342403e-01	7.0000000e+00	3.8800001e-01
-1.5700000e+02	6.6245186e-01	7.5000000e+00	4.1060001e-01
-1.5600000e+02	6.8084550e-01	8.5000000e+00	4.5370001e-01
-1.5500000e+02	6.9851995e-01	9.0000000e+00	4.7389999e-01
-1.5400000e+02	7.1540517e-01	9.5000000e+00	4.9320000e-01
-1.5300000e+02	7.3144233e-01	1.0500000e+01	5.9210002e-01
-1.5200000e+02	7.4658185e-01	1.1000000e+01	6.1970001e-01
-1.5100000e+02	7.6078135e-01	1.2000000e+01	6.8940002e-01
-1.5000000e+02	7.7400458e-01	1.2500000e+01	6.9849998e-01
-1.4900000e+02	7.8622031e-01	1.3000000e+01	4.7670001e-01
-1.4800000e+02	7.9740173e-01	1.3500000e+01	4.9559999e-01
-1.4700000e+02	8.0752587e-01	1.4000000e+01	5.0239998e-01
-1.4600000e+02	8.1657302e-01	1.4500000e+01	5.1270002e-01
-1.4500000e+02	8.2452667e-01	1.5000000e+01	7.9850000e-01
-1.4400000e+02	8.3137304e-01	1.5500000e+01	8.1580001e-01
-1.4300000e+02	8.3710092e-01	1.6000000e+01	8.3590001e-01
-1.4200000e+02	8.4170157e-01	1.6500000e+01	8.6180001e-01
-1.4100000e+02	8.4516847e-01	1.7000000e+01	8.7449998e-01
-1.4000000e+02	8.4749728e-01	1.8000000e+01	9.1060001e-01
-1.3900000e+02	8.4868586e-01	1.8500000e+01	9.3760002e-01
-1.3800000e+02	8.4873396e-01	1.9000000e+01	9.4870001e-01
-1.3700000e+02	8.4764326e-01	1.9500000e+01	9.6039999e-01
-1.3600000e+02	8.4541726e-01	2.0000000e+01	9.7950000e-01
-1.3500000e+02	8.4206146e-01	END	END
-1.3400000e+02	8.3758289e-01	END	END
-1.3300000e+02	8.3199042e-01	END	END
-1.3200000e+02	8.2529449e-01	END	END
-1.3100000e+02	8.1750727e-01	END	END
-1.3000000e+02	8.0864227e-01	END	END
-1.2900000e+02	7.9871464e-01	END	END
-1.2800000e+02	7.8774112e-01	END	END
-1.2700000e+02	7.7573961e-01	END	END
-1.2600000e+02	7.6272953e-01	END	END
-1.2500000e+02	7.4873161e-01	END	END
-1.2400000e+02	7.3376787e-01	END	END
-1.2300000e+02	7.1786147e-01	END	END
-1.2200000e+02	7.0103687e-01	END	END
-1.2100000e+02	6.8331951e-01	END	END
-1.2000000e+02	6.6473597e-01	END	END
-1.1900000e+02	6.4531386e-01	END	END
-1.1800000e+02	6.2508184e-01	END	END
-1.1700000e+02	6.0406929e-01	END	END
-1.1600000e+02	5.8230662e-01	END	END
-1.1500000e+02	5.5982506e-01	END	END
-1.1400000e+02	5.3665644e-01	END	END
-1.1300000e+02	5.1283342e-01	END	END
-1.1200000e+02	4.8838928e-01	END	END
-1.1100000e+02	4.6335793e-01	END	END
-1.1000000e+02	4.3777376e-01	END	END
-1.0900000e+02	4.1167170e-01	END	END
-1.0800000e+02	3.8445976e-01	END	END
-1.0700000e+02	3.5744357e-01	END	END
-1.0600000e+02	3.3001557e-01	END	END
-1.0500000e+02	3.0221215e-01	END	END
-1.0400000e+02	2.7406991e-01	END	END
-1.0300000e+02	2.4562560e-01	END	END
-1.0200000e+02	2.1691610e-01	END	END
-1.0100000e+02	1.8797836e-01	END	END
-1.0000000e+02	1.5884934e-01	END	END
-9.9000000e+01	1.2956597e-01	END	END
-9.8000000e+01	1.0016510e-01	END	END
-9.7000000e+01	7.0683450e-02	END	END
-9.6000000e+01	4.1157581e-02	END	END
-9.5000000e+01	1.1623817e-02	END	END
-9.4000000e+01	-1.7881764e-02	END	END
-9.3000000e+01	-4.7323395e-02	END	END
-9.2000000e+01	-7.6665647e-02	END	END
-9.1000000e+01	-1.0587348e-01	END	END
-9.0000000e+01	-1.3491230e-01	END	END
-8.9000000e+01	-1.6374792e-01	END	END
-8.8000000e+01	-1.9234672e-01	END	END
-8.7000000e+01	-2.2067559e-01	END	END
-8.6000000e+01	-2.4870194e-01	END	END
-8.5000000e+01	-2.7639386e-01	END	END
-8.4000000e+01	-3.0372006e-01	END	END
-8.3000000e+01	-3.3064985e-01	END	END
-8.2000000e+01	-3.5715330e-01	END	END
-8.1000000e+01	-3.8320115e-01	END	END
-8.0000000e+01	-4.0876496e-01	END	END
-7.9000000e+01	-4.3381694e-01	END	END
-7.8000000e+01	-4.5833024e-01	END	END
-7.7000000e+01	-4.8227873e-01	END	END
-7.6000000e+01	-5.0563711e-01	END	END
-7.5000000e+01	-5.2838099e-01	END	END
-7.4000000e+01	-5.5048686e-01	END	END
-7.3000000e+01	-5.7193202e-01	END	END
-7.2000000e+01	-5.9269470e-01	END	END
-7.1000000e+01	-6.1275417e-01	END	END
-7.0000000e+01	-6.3209051e-01	END	END
-6.9000000e+01	-6.5068471e-01	END	END
-6.8000000e+01	-6.6851890e-01	END	END
-6.7000000e+01	-6.8557596e-01	END	END
-6.6000000e+01	-7.0183992e-01	END	END
-6.5000000e+01	-7.1729565e-01	END	END
-6.4000000e+01	-7.3192918e-01	END	END
-6.3000000e+01	-7.4572730e-01	END	END
-6.2000000e+01	-7.5867802e-01	END	END
-6.1000000e+01	-7.7077025e-01	END	END
-6.0000000e+01	-7.8199393e-01	END	END
-5.9000000e+01	-7.9233992e-01	END	END
-5.8000000e+01	-8.0180031e-01	END	END
-5.7000000e+01	-8.1036800e-01	END	END
-5.6000000e+01	-8.1803691e-01	END	END
-5.5000000e+01	-8.2480216e-01	END	END
-5.4000000e+01	-8.3065969e-01	END	END
-5.3000000e+01	-8.3560652e-01	END	END
-5.2000000e+01	-8.3964074e-01	END	END
-5.1000000e+01	-8.4276140e-01	END	END
-5.0000000e+01	-8.4496868e-01	END	END
-4.9000000e+01	-8.4626365e-01	END	END
-4.8000000e+01	-8.4664851e-01	END	END
-4.7000000e+01	-8.4612650e-01	END	END
-4.6000000e+01	-8.4470189e-01	END	END
-4.5000000e+01	-8.4238005e-01	END	END
-4.4000000e+01	-8.3916748e-01	END	END
-4.3000000e+01	-8.3507180e-01	END	END
-4.2000000e+01	-8.3010179e-01	END	END
-4.1000000e+01	-8.2426751e-01	END	END
-4.0000000e+01	-8.1758022e-01	END	END
-3.9000000e+01	-8.1005269e-01	END	END
-3.8000000e+01	-8.0169910e-01	END	END
-3.7000000e+01	-7.9253536e-01	END	END
-3.6000000e+01	-7.8257912e-01	END	END
-3.5000000e+01	-7.7185029e-01	END	END
-3.4000000e+01	-7.6037091e-01	END	END
-3.3000000e+01	-7.4816632e-01	END	END
-3.2000000e+01	-7.3526490e-01	END	END
-3.1000000e+01	-7.2169960e-01	END	END
-3.0000000e+01	-7.0750850e-01	END	END
-2.9000000e+01	-6.9273645e-01	END	END
-2.8000000e+01	-6.7743719e-01	END	END
-2.7000000e+01	-6.6167593e-01	END	END
-2.6000000e+01	-6.4553338e-01	END	END
-2.5000000e+01	-6.2911171e-01	END	END
-2.4000000e+01	-6.1254221e-01	END	END
-2.3000000e+01	-5.9599811e-01	END	END
-2.2000000e+01	-5.7971221e-01	END	END
-2.1000000e+01	-5.6400484e-01	END	END
-2.0000000e+01	-5.4932624e-01	END	END
-1.9000000e+01	-5.3632289e-01	END	END
-1.8000000e+01	-5.2594095e-01	END	END
-1.7000000e+01	-5.1958758e-01	END	END
-1.6000000e+01	-5.1937234e-01	END	END
-1.5000000e+01	-5.2843308e-01	END	END
-1.4000000e+01	-5.5123794e-01	END	END
-1.3000000e+01	-5.9335393e-01	END	END
-1.2000000e+01	-6.5912700e-01	END	END
-1.1000000e+01	-7.4446410e-01	END	END
-1.0000000e+01	-8.2579607e-01	END	END
-9.0000000e+00	-8.6313695e-01	END	END
-8.0000000e+00	-8.3347201e-01	END	END
-7.0000000e+00	-7.5236726e-01	END	END
-6.0000000e+00	-6.4953488e-01	END	END
-5.0000000e+00	-5.4263067e-01	END	END
-4.0000000e+00	-4.0650001e-01	END	END
-3.5000000e+00	-3.6610001e-01	END	END
-3.0000000e+00	-3.2020000e-01	END	END
-2.5000000e+00	-2.7010000e-01	END	END
-2.0000000e+00	-2.1690001e-01	END	END
-1.5000000e+00	-1.7030001e-01	END	END
-1.0000000e+00	-8.8500001e-02	END	END
-5.0000000e-01	-4.5800000e-02	END	END
0.0000000e+00	-7.6000001e-03	END	END
5.0000000e-01	2.9200001e-02	END	END
1.0000000e+00	6.4700000e-02	END	END
1.5000000e+00	9.8700002e-02	END	END
2.0000000e+00	1.3120000e-01	END	END
2.5000000e+00	1.6180000e-01	END	END
3.0000000e+00	1.9050001e-01	END	END
3.5000000e+00	2.1750000e-01	END	END
4.0000000e+00	2.4310000e-01	END	END
4.5000000e+00	2.6809999e-01	END	END
5.0000000e+00	2.9260001e-01	END	END
5.5000000e+00	3.1690001e-01	END	END
6.0000000e+00	3.4110001e-01	END	END
6.5000000e+00	3.6480001e-01	END	END
7.0000000e+00	3.8800001e-01	END	END
7.5000000e+00	4.1060001e-01	END	END
8.5000000e+00	4.5370001e-01	END	END
9.0000000e+00	4.7389999e-01	END	END
9.5000000e+00	4.9320000e-01	END	END
1.0500000e+01	5.9210002e-01	END	END
1.1000000e+01	6.1970001e-01	END	END
1.2000000e+01	6.8940002e-01	END	END
1.2500000e+01	6.9849998e-01	END	END
1.3000000e+01	4.7670001e-01	END	END
1.3500000e+01	4.9559999e-01	END	END
1.4000000e+01	5.0239998e-01	END	END
1.4500000e+01	5.1270002e-01	END	END
1.5000000e+01	7.9850000e-01	END	END
1.5500000e+01	8.1580001e-01	END	END
1.6000000e+01	8.3590001e-01	END	END
1.6500000e+01	8.6180001e-01	END	END
1.7000000e+01	8.7449998e-01	END	END
1.8000000e+01	9.1060001e-01	END	END
1.8500000e+01	9.3760002e-01	END	END
1.9000000e+01	9.4870001e-01	END	END
1.9500000e+01	9.6039999e-01	END	END
2.0000000e+01	9.7950000e-01	END	END
2.1000000e+01	5.7593268e-01	END	END
2.2000000e+01	5.9305930e-01	END	END
2.3000000e+01	6.1031747e-01	END	END
2.4000000e+01	6.2756038e-01	END	END
2.5000000e+01	6.4466661e-01	END	END
2.6000000e+01	6.6153455e-01	END	END
2.7000000e+01	6.7807835e-01	END	END
2.8000000e+01	6.9422472e-01	END	END
2.9000000e+01	7.0991051e-01	END	END
3.0000000e+01	7.2508067e-01	END	END
3.1000000e+01	7.3968691e-01	END	END
3.2000000e+01	7.5368643e-01	END	END
3.3000000e+01	7.6704109e-01	END	END
3.4000000e+01	7.7971661e-01	END	END
3.5000000e+01	7.9168206e-01	END	END
3.6000000e+01	8.0290949e-01	END	END
3.7000000e+01	8.1337333e-01	END	END
3.8000000e+01	8.2305032e-01	END	END
3.9000000e+01	8.3191931e-01	END	END
4.0000000e+01	8.3996099e-01	END	END
4.1000000e+01	8.4715760e-01	END	END
4.2000000e+01	8.5349315e-01	END	END
4.3000000e+01	8.5895294e-01	END	END
4.4000000e+01	8.6352396e-01	END	END
4.5000000e+01	8.6719429e-01	END	END
4.6000000e+01	8.6995345e-01	END	END
4.7000000e+01	8.7179226e-01	END	END
4.8000000e+01	8.7270278e-01	END	END
4.9000000e+01	8.7267810e-01	END	END
5.0000000e+01	8.7171280e-01	END	END
5.1000000e+01	8.6980253e-01	END	END
5.2000000e+01	8.6694407e-01	END	END
5.3000000e+01	8.6313540e-01	END	END
5.4000000e+01	8.5837573e-01	END	END
5.5000000e+01	8.5266536e-01	END	END
5.6000000e+01	8.4600580e-01	END	END
5.7000000e+01	8.3839971e-01	END	END
5.8000000e+01	8.2985091e-01	END	END
5.9000000e+01	8.2036436e-01	END	END
6.0000000e+01	8.0994612e-01	END	END
6.1000000e+01	7.9860365e-01	END	END
6.2000000e+01	7.8634524e-01	END	END
6.3000000e+01	7.7318054e-01	END	END
6.4000000e+01	7.5912035e-01	END	END
6.5000000e+01	7.4417645e-01	END	END
6.6000000e+01	7.2836190e-01	END	END
6.7000000e+01	7.1169090e-01	END	END
6.8000000e+01	6.9417870e-01	END	END
6.9000000e+01	6.7584181e-01	END	END
7.0000000e+01	6.5669763e-01	END	END
7.1000000e+01	6.3676488e-01	END	END
7.2000000e+01	6.1606330e-01	END	END
7.3000000e+01	5.9461361e-01	END	END
7.4000000e+01	5.7243776e-01	END	END
7.5000000e+01	5.4955858e-01	END	END
7.6000000e+01	5.2600008e-01	END	END
7.7000000e+01	5.0178719e-01	END	END
7.8000000e+01	4.7694588e-01	END	END
7.9000000e+01	4.5150307e-01	END	END
8.0000000e+01	4.2548659e-01	END	END
8.1000000e+01	3.9892524e-01	END	END
8.2000000e+01	3.7184873e-01	END	END
8.3000000e+01	3.4428760e-01	END	END
8.4000000e+01	3.1627324e-01	END	END
8.5000000e+01	2.8783783e-01	END	END
8.6000000e+01	2.5901437e-01	END	END
8.7000000e+01	2.2983651e-01	END	END
8.8000000e+01	2.0033868e-01	END	END
8.9000000e+01	1.7055595e-01	END	END
9.0000000e+01	1.4052401e-01	END	END
9.1000000e+01	1.1027914e-01	END	END
9.2000000e+01	7.9858139e-02	END	END
9.3000000e+01	4.9298331e-02	END	END
9.4000000e+01	1.8637475e-02	END	END
9.5000000e+01	-1.2086266e-02	END	END
9.6000000e+01	-4.2834364e-02	END	END
9.7000000e+01	-7.3567994e-02	END	END
9.8000000e+01	-1.0424806e-01	END	END
9.9000000e+01	-1.3483529e-01	END	END
1.0000000e+02	-1.6529021e-01	END	END
1.0100000e+02	-1.9557329e-01	END	END
1.0200000e+02	-2.2564495e-01	END	END
1.0300000e+02	-2.5546560e-01	END	END
1.0400000e+02	-2.8499573e-01	END	END
1.0500000e+02	-3.1419599e-01	END	END
1.0600000e+02	-3.4302711e-01	END	END
1.0700000e+02	-3.7145019e-01	END	END
1.0800000e+02	-3.9942655e-01	END	END
1.0900000e+02	-4.2691785e-01	END	END
1.1000000e+02	-4.5487869e-01	END	END
1.1100000e+02	-4.8129815e-01	END	END
1.1200000e+02	-5.0712186e-01	END	END
1.1300000e+02	-5.3231370e-01	END	END
1.1400000e+02	-5.5683804e-01	END	END
1.1500000e+02	-5.8066010e-01	END	END
1.1600000e+02	-6.0374582e-01	END	END
1.1700000e+02	-6.2606204e-01	END	END
1.1800000e+02	-6.4757633e-01	END	END
1.1900000e+02	-6.6825742e-01	END	END
1.2000000e+02	-6.8807495e-01	END	END
1.2100000e+02	-7.0699960e-01	END	END
1.2200000e+02	-7.2500330e-01	END	END
1.2300000e+02	-7.4205899e-01	END	END
1.2400000e+02	-7.5814098e-01	END	END
1.2500000e+02	-7.7322477e-01	END	END
1.2600000e+02	-7.8728729e-01	END	END
1.2700000e+02	-8.0030668e-01	END	END
1.2800000e+02	-8.1226277e-01	END	END
1.2900000e+02	-8.2313657e-01	END	END
1.3000000e+02	-8.3291090e-01	END	END
1.3100000e+02	-8.4156996e-01	END	END
1.3200000e+02	-8.4909970e-01	END	END
1.3300000e+02	-8.5548759e-01	END	END
1.3400000e+02	-8.6072290e-01	END	END
1.3500000e+02	-8.6479664e-01	END	END
1.3600000e+02	-8.6770165e-01	END	END
1.3700000e+02	-8.6943251e-01	END	END
1.3800000e+02	-8.6998576e-01	END	END
1.3900000e+02	-8.6935985e-01	END	END
1.4000000e+02	-8.6755520e-01	END	END
1.4100000e+02	-8.6457425e-01	END	END
1.4200000e+02	-8.6042166e-01	END	END
1.4300000e+02	-8.5510409e-01	END	END
1.4400000e+02	-8.4863067e-01	END	END
1.4500000e+02	-8.4101272e-01	END	END
1.4600000e+02	-8.3226418e-01	END	END
1.4700000e+02	-8.2240158e-01	END	END
1.4800000e+02	-8.1144428e-01	END	END
1.4900000e+02	-7.9941487e-01	END	END
1.5000000e+02	-7.8633916e-01	END	END
1.5100000e+02	-7.7224690e-01	END	END
1.5200000e+02	-7.5717217e-01	END	END
1.5300000e+02	-7.4115413e-01	END	END
1.5400000e+02	-7.2423798e-01	END	END
1.5500000e+02	-7.0647609e-01	END	END
1.5600000e+02	-6.8792975e-01	END	END
1.5700000e+02	-6.6867155e-01	END	END
1.5800000e+02	-6.4878833e-01	END	END
1.5900000e+02	-6.2838572e-01	END	END
1.6000000e+02	-6.0759389e-01	END	END
1.6100000e+02	-5.8657616e-01	END	END
1.6200000e+02	-5.6554049e-01	END	END
1.6300000e+02	-5.4475600e-01	END	END
1.6400000e+02	-5.2457494e-01	END	END
1.6500000e+02	-5.0546247e-01	END	END
1.6600000e+02	-4.8803222e-01	END	END
1.6700000e+02	-4.7307986e-01	END	END
1.6800000e+02	-4.6158817e-01	END	END
1.6900000e+02	-4.5462778e-01	END	END
1.7000000e+02	-4.5298475e-01	END	END
1.7100000e+02	-4.5622367e-01	END	END
1.7200000e+02	-4.6099818e-01	END	END
1.7300000e+02	-4.5946607e-01	END	END
1.7400000e+02	-4.4076633e-01	END	END
1.7500000e+02	-3.9758506e-01	END	END
1.7600000e+02	-3.3201557e-01	END	END
1.7700000e+02	-2.5286683e-01	END	END
1.7800000e+02	-1.6841452e-01	END	END
1.7900000e+02	-8.2865678e-02	END	END
1.8000000e+02	2.7392288e-03	END	END
